PE UV       SUBTECH     SPECTRUM    ASCII       PEDS        4.00        
   -1
SampleCriBGO.Sample.asc
11/01/16
03:59:03.00
11/01/16
03:59:03.00
PerkinElmer Method Developer

250.000000
1
Lambda 35
502S12111107
PerkinElmer UV WinLab 6.0.4.0738 / Lambda35 1.27

480
2
1
0
0
Both on
1
1
1
None
0
0
0
0
 
 
0
0
0
0
0
 
 
 
0
 
0
326
0
 
0
 
 
 
0
0
0
 
0
 
 
 
0
 
 
0
0
0
0
0
 
 
 
 
0
0


0
0
#HDR
-1
-1
#GR
nm
%T
1.0
0.0
900.000000
-1.000000
651
8
92.424988
1.169122
#DATA
900.000000	90.379179
899.000000	90.272013
898.000000	90.357790
897.000000	90.376979
896.000000	90.337642
895.000000	90.221457
894.000000	90.259644
893.000000	90.188717
892.000000	90.493656
891.000000	90.175334
890.000000	90.305894
889.000000	90.470723
888.000000	90.428779
887.000000	90.352505
886.000000	90.342335
885.000000	90.337362
884.000000	90.332525
883.000000	90.367368
882.000000	90.338115
881.000000	90.478132
880.000000	90.310236
879.000000	90.249271
878.000000	90.430229
877.000000	90.262211
876.000000	90.663911
875.000000	90.429333
874.000000	90.533527
873.000000	90.330961
872.000000	90.466510
871.000000	90.599498
870.000000	90.349775
869.000000	90.489202
868.000000	90.356880
867.000000	90.347083
866.000000	90.565438
865.000000	90.414590
864.000000	90.544276
863.000000	90.590681
862.000000	90.471618
861.000000	90.428831
860.000000	90.494317
859.000000	90.485645
858.000000	90.334552
857.000000	90.653348
856.000000	90.365808
855.000000	90.610786
854.000000	90.474383
853.000000	90.641973
852.000000	90.574975
851.000000	90.442218
850.000000	90.563257
849.000000	90.484259
848.000000	90.487391
847.000000	90.601524
846.000000	90.497887
845.000000	90.538758
844.000000	90.494527
843.000000	90.792669
842.000000	90.490104
841.000000	90.617066
840.000000	90.384934
839.000000	90.509413
838.000000	90.533363
837.000000	90.591755
836.000000	90.555987
835.000000	90.678673
834.000000	90.604325
833.000000	90.404489
832.000000	90.691075
831.000000	90.597148
830.000000	90.718263
829.000000	90.546488
828.000000	90.619775
827.000000	90.469037
826.000000	90.746319
825.000000	90.690155
824.000000	90.511763
823.000000	90.461333
822.000000	90.658482
821.000000	90.505377
820.000000	90.648004
819.000000	90.677588
818.000000	90.475130
817.000000	90.607242
816.000000	90.429850
815.000000	90.653009
814.000000	90.696769
813.000000	90.506083
812.000000	90.746916
811.000000	90.611293
810.000000	90.658151
809.000000	90.691607
808.000000	90.607521
807.000000	90.725136
806.000000	90.545777
805.000000	90.601836
804.000000	90.719540
803.000000	90.755791
802.000000	90.602543
801.000000	90.624655
800.000000	90.768637
799.000000	90.629995
798.000000	90.753802
797.000000	90.677966
796.000000	90.586878
795.000000	90.680433
794.000000	90.580744
793.000000	90.652925
792.000000	90.589203
791.000000	90.746220
790.000000	90.628077
789.000000	90.672131
788.000000	90.635579
787.000000	90.764192
786.000000	90.759832
785.000000	90.630788
784.000000	90.694762
783.000000	90.746789
782.000000	90.682622
781.000000	90.641116
780.000000	90.646701
779.000000	90.674474
778.000000	90.702972
777.000000	90.708013
776.000000	90.694903
775.000000	90.625338
774.000000	90.753351
773.000000	90.697674
772.000000	90.752816
771.000000	90.719208
770.000000	90.699176
769.000000	90.675414
768.000000	90.718933
767.000000	90.697674
766.000000	90.659075
765.000000	90.642428
764.000000	90.735476
763.000000	90.688324
762.000000	90.619649
761.000000	90.741038
760.000000	90.653455
759.000000	90.693821
758.000000	90.694570
757.000000	90.603991
756.000000	90.661333
755.000000	90.623168
754.000000	90.613853
753.000000	90.642964
752.000000	90.597563
751.000000	90.690004
750.000000	90.622676
749.000000	90.653063
748.000000	90.593297
747.000000	90.656539
746.000000	90.689893
745.000000	90.702611
744.000000	90.625663
743.000000	90.705570
742.000000	90.651678
741.000000	90.590044
740.000000	90.562238
739.000000	90.719245
738.000000	90.579825
737.000000	90.603494
736.000000	90.652968
735.000000	90.521804
734.000000	90.606799
733.000000	90.601185
732.000000	90.725742
731.000000	90.536895
730.000000	90.652772
729.000000	90.582509
728.000000	90.623843
727.000000	90.550265
726.000000	90.623843
725.000000	90.662714
724.000000	90.619375
723.000000	90.483999
722.000000	90.596889
721.000000	90.596889
720.000000	90.625497
719.000000	90.563940
718.000000	90.572837
717.000000	90.648016
716.000000	90.633448
715.000000	90.547343
714.000000	90.599650
713.000000	90.589858
712.000000	90.592353
711.000000	90.613718
710.000000	90.533015
709.000000	90.550011
708.000000	90.550512
707.000000	90.586985
706.000000	90.615368
705.000000	90.573662
704.000000	90.527827
703.000000	90.580789
702.000000	90.490618
701.000000	90.500505
700.000000	90.461751
699.000000	90.543131
698.000000	90.490896
697.000000	90.527942
696.000000	90.510949
695.000000	90.523120
694.000000	90.519861
693.000000	90.528505
692.000000	90.480000
691.000000	90.493728
690.000000	90.467799
689.000000	90.484586
688.000000	90.466781
687.000000	90.492995
686.000000	90.428090
685.000000	90.475936
684.000000	90.467020
683.000000	90.508728
682.000000	90.614645
681.000000	90.392523
680.000000	90.665597
679.000000	90.637365
678.000000	90.641711
677.000000	90.588612
676.000000	90.453550
675.000000	90.662103
674.000000	90.639208
673.000000	90.387696
672.000000	90.398076
671.000000	90.449738
670.000000	90.546466
669.000000	90.436502
668.000000	90.548992
667.000000	90.515398
666.000000	90.370449
665.000000	90.518162
664.000000	90.510520
663.000000	90.479240
662.000000	90.518162
661.000000	90.493728
660.000000	90.510248
659.000000	90.619497
658.000000	90.413444
657.000000	90.479237
656.000000	90.461473
655.000000	90.506127
654.000000	90.385640
653.000000	90.446776
652.000000	90.337162
651.000000	90.433626
650.000000	90.417154
649.000000	90.451620
648.000000	90.532702
647.000000	90.427060
646.000000	90.515727
645.000000	90.425306
644.000000	90.353441
643.000000	90.407100
642.000000	90.445826
641.000000	90.406375
640.000000	90.360423
639.000000	90.346732
638.000000	90.329938
637.000000	90.268350
636.000000	90.478466
635.000000	90.415030
634.000000	90.405434
633.000000	90.248302
632.000000	90.392781
631.000000	90.381963
630.000000	90.356972
629.000000	90.334730
628.000000	90.352367
627.000000	90.279472
626.000000	90.293993
625.000000	90.266801
624.000000	90.215835
623.000000	90.444338
622.000000	90.374814
621.000000	90.200552
620.000000	90.262669
619.000000	90.269525
618.000000	90.257880
617.000000	90.216584
616.000000	90.084836
615.000000	90.255811
614.000000	90.269151
613.000000	90.149222
612.000000	90.230830
611.000000	90.158545
610.000000	90.012723
609.000000	90.177245
608.000000	90.131055
607.000000	90.168718
606.000000	90.142713
605.000000	90.098221
604.000000	90.025480
603.000000	90.099325
602.000000	90.081240
601.000000	90.040899
600.000000	90.027083
599.000000	90.070168
598.000000	90.024447
597.000000	90.039883
596.000000	90.002127
595.000000	90.051686
594.000000	90.047419
593.000000	90.057606
592.000000	89.998398
591.000000	89.995727
590.000000	89.939595
589.000000	89.897315
588.000000	90.035377
587.000000	90.017175
586.000000	89.918944
585.000000	89.940892
584.000000	89.974694
583.000000	90.003233
582.000000	90.016729
581.000000	89.981638
580.000000	89.915694
579.000000	89.974585
578.000000	89.997834
577.000000	89.879244
576.000000	89.966936
575.000000	89.855858
574.000000	89.860576
573.000000	89.954933
572.000000	89.788274
571.000000	89.926610
570.000000	89.980952
569.000000	89.919904
568.000000	89.818697
567.000000	89.820718
566.000000	89.836888
565.000000	89.840681
564.000000	89.720646
563.000000	89.769500
562.000000	89.804286
561.000000	89.693090
560.000000	89.632144
559.000000	89.760718
558.000000	89.843150
557.000000	89.716137
556.000000	89.631703
555.000000	89.735136
554.000000	89.748241
553.000000	89.728362
552.000000	89.606464
551.000000	89.554455
550.000000	89.571397
549.000000	89.609960
548.000000	89.701583
547.000000	89.686000
546.000000	89.565745
545.000000	89.585518
544.000000	89.496053
543.000000	89.534177
542.000000	89.547866
541.000000	89.455350
540.000000	89.504567
539.000000	89.535271
538.000000	89.496475
537.000000	89.358043
536.000000	89.353549
535.000000	89.377778
534.000000	89.414515
533.000000	89.302015
532.000000	89.332293
531.000000	89.301651
530.000000	89.253615
529.000000	89.256383
528.000000	89.319301
527.000000	89.305112
526.000000	89.301335
525.000000	89.190099
524.000000	89.168398
523.000000	89.269638
522.000000	89.189189
521.000000	89.248646
520.000000	89.159280
519.000000	89.046435
518.000000	89.137941
517.000000	89.042415
516.000000	89.091219
515.000000	88.995569
514.000000	89.143801
513.000000	89.015497
512.000000	88.954748
511.000000	88.966305
510.000000	88.940988
509.000000	89.032073
508.000000	88.963537
507.000000	88.775862
506.000000	88.858211
505.000000	88.904916
504.000000	88.964680
503.000000	88.961641
502.000000	88.974642
501.000000	88.786946
500.000000	88.776995
499.000000	88.847410
498.000000	88.809635
497.000000	88.762072
496.000000	88.696723
495.000000	88.709298
494.000000	88.635560
493.000000	88.558622
492.000000	88.730478
491.000000	88.767514
490.000000	88.521181
489.000000	88.649100
488.000000	88.611526
487.000000	88.582724
486.000000	88.491801
485.000000	88.594852
484.000000	88.497071
483.000000	88.501848
482.000000	88.547995
481.000000	88.483334
480.000000	88.444363
479.000000	88.300545
478.000000	88.374524
477.000000	88.407407
476.000000	88.122795
475.000000	88.209011
474.000000	88.222098
473.000000	88.114164
472.000000	88.107329
471.000000	88.116507
470.000000	87.972443
469.000000	88.109582
468.000000	88.088114
467.000000	87.964026
466.000000	87.788166
465.000000	88.275418
464.000000	87.816211
463.000000	87.930142
462.000000	87.951337
461.000000	87.853512
460.000000	88.091643
459.000000	87.697865
458.000000	87.820005
457.000000	87.654566
456.000000	87.450199
455.000000	87.898812
454.000000	87.512541
453.000000	87.835288
452.000000	87.797800
451.000000	87.434839
450.000000	87.513580
449.000000	87.486361
448.000000	87.464895
447.000000	87.598981
446.000000	87.122570
445.000000	87.554722
444.000000	87.437151
443.000000	87.406991
442.000000	87.628939
441.000000	87.380362
440.000000	87.101367
439.000000	87.235720
438.000000	87.203518
437.000000	87.359408
436.000000	87.082211
435.000000	87.038664
434.000000	86.950125
433.000000	86.992654
432.000000	87.317839
431.000000	86.921348
430.000000	87.429133
429.000000	86.943643
428.000000	86.999619
427.000000	86.848142
426.000000	86.972265
425.000000	86.882070
424.000000	86.929736
423.000000	86.612815
422.000000	86.990199
421.000000	86.557351
420.000000	86.678876
419.000000	86.606929
418.000000	86.565486
417.000000	86.596106
416.000000	86.553599
415.000000	86.260600
414.000000	86.290918
413.000000	86.259479
412.000000	86.392641
411.000000	86.341301
410.000000	86.284853
409.000000	86.103634
408.000000	86.161394
407.000000	86.153846
406.000000	86.031800
405.000000	86.093227
404.000000	86.060763
403.000000	86.083637
402.000000	85.813872
401.000000	85.860710
400.000000	86.015715
399.000000	85.702890
398.000000	85.637919
397.000000	85.688682
396.000000	85.610151
395.000000	85.718167
394.000000	85.428597
393.000000	85.510297
392.000000	85.552277
391.000000	85.520572
390.000000	85.591639
389.000000	85.471610
388.000000	85.479607
387.000000	85.589437
386.000000	85.218717
385.000000	87.507274
384.000000	92.424988
383.000000	85.013701
382.000000	87.335119
381.000000	88.389027
380.000000	84.461203
379.000000	86.679382
378.000000	87.130630
377.000000	83.323347
376.000000	85.246732
375.000000	85.432350
374.000000	85.317419
373.000000	85.160553
372.000000	86.145667
371.000000	85.706712
370.000000	84.525594
369.000000	84.830980
368.000000	85.021029
367.000000	84.713097
366.000000	84.405074
365.000000	83.975637
364.000000	85.816156
363.000000	84.339919
362.000000	84.734564
361.000000	84.963185
360.000000	83.741980
359.000000	84.486736
358.000000	83.959487
357.000000	84.133710
356.000000	84.418356
355.000000	84.624483
354.000000	83.692818
353.000000	83.397730
352.000000	84.810127
351.000000	82.312265
350.000000	82.652812
349.000000	81.510224
348.000000	81.584877
347.000000	81.154136
346.000000	84.293327
345.000000	83.109987
344.000000	81.180100
343.000000	82.349923
342.000000	82.702916
341.000000	83.259104
340.000000	80.104781
339.000000	81.875000
338.000000	79.925897
337.000000	81.796247
336.000000	80.970745
335.000000	81.563126
334.000000	81.142623
333.000000	79.216119
332.000000	76.321180
331.000000	77.584316
330.000000	81.431799
329.000000	79.547043
328.000000	83.949543
327.000000	75.294786
326.000000	76.102438
325.000000	75.612779
324.000000	75.059515
323.000000	73.474505
322.000000	73.133484
321.000000	72.160861
320.000000	69.941951
319.000000	67.992560
318.000000	66.512100
317.000000	64.095085
316.000000	61.452514
315.000000	57.022097
314.000000	51.224612
313.000000	45.442218
312.000000	38.184854
311.000000	28.331314
310.000000	20.973438
309.000000	12.571429
308.000000	7.542465
307.000000	3.461841
306.000000	2.732586
305.000000	1.169122
304.000000	2.630730
303.000000	2.531025
302.000000	1.777485
301.000000	2.670227
300.000000	2.399329
299.000000	2.429907
298.000000	2.105627
297.000000	2.010138
296.000000	2.171227
295.000000	2.511131
294.000000	2.147459
293.000000	2.443026
292.000000	2.552332
291.000000	2.765321
290.000000	2.655367
289.000000	3.125599
288.000000	2.575844
287.000000	2.940596
286.000000	2.898551
285.000000	4.099678
284.000000	2.627826
283.000000	4.511125
282.000000	3.627695
281.000000	2.948664
280.000000	3.592814
279.000000	3.701313
278.000000	3.061889
277.000000	3.616835
276.000000	3.594127
275.000000	3.767730
274.000000	3.043186
273.000000	2.154399
272.000000	5.127042
271.000000	3.288422
270.000000	2.908175
269.000000	3.280569
268.000000	3.129346
267.000000	3.868427
266.000000	4.012130
265.000000	3.823598
264.000000	3.361742
263.000000	3.611898
262.000000	2.729232
261.000000	3.155106
260.000000	2.704019
259.000000	2.907120
258.000000	3.197026
257.000000	3.055347
256.000000	3.047091
255.000000	3.567788
254.000000	3.877973
253.000000	2.576783
252.000000	3.087071
251.000000	3.019776
250.000000	3.116457
